Criado como novo conjunto de dados;Amostra 269 por fsouto data terça-feira, março 25 2025
cm-1;A
4000,00;0,0018
3999,00;0,0018
3998,00;0,0018
3997,00;0,0018
3996,00;0,0018
3995,00;0,0018
3994,00;0,0017
3993,00;0,0017
3992,00;0,0017
3991,00;0,0018
3990,00;0,0018
3989,00;0,0018
3988,00;0,0018
3987,00;0,0018
3986,00;0,0018
3985,00;0,0018
3984,00;0,0018
3983,00;0,0018
3982,00;0,0018
3981,00;0,0017
3980,00;0,0017
3979,00;0,0017
3978,00;0,0017
3977,00;0,0018
3976,00;0,0018
3975,00;0,0017
3974,00;0,0017
3973,00;0,0017
3972,00;0,0017
3971,00;0,0017
3970,00;0,0018
3969,00;0,0018
3968,00;0,0018
3967,00;0,0018
3966,00;0,0018
3965,00;0,0018
3964,00;0,0018
3963,00;0,0018
3962,00;0,0017
3961,00;0,0017
3960,00;0,0017
3959,00;0,0017
3958,00;0,0018
3957,00;0,0018
3956,00;0,0018
3955,00;0,0018
3954,00;0,0017
3953,00;0,0017
3952,00;0,0017
3951,00;0,0017
3950,00;0,0017
3949,00;0,0017
3948,00;0,0017
3947,00;0,0017
3946,00;0,0017
3945,00;0,0017
3944,00;0,0018
3943,00;0,0018
3942,00;0,0017
3941,00;0,0017
3940,00;0,0017
3939,00;0,0017
3938,00;0,0017
3937,00;0,0017
3936,00;0,0017
3935,00;0,0017
3934,00;0,0017
3933,00;0,0017
3932,00;0,0017
3931,00;0,0017
3930,00;0,0017
3929,00;0,0018
3928,00;0,0018
3927,00;0,0018
3926,00;0,0018
3925,00;0,0018
3924,00;0,0018
3923,00;0,0018
3922,00;0,0017
3921,00;0,0017
3920,00;0,0017
3919,00;0,0017
3918,00;0,0017
3917,00;0,0017
3916,00;0,0018
3915,00;0,0018
3914,00;0,0018
3913,00;0,0018
3912,00;0,0018
3911,00;0,0017
3910,00;0,0017
3909,00;0,0017
3908,00;0,0018
3907,00;0,0018
3906,00;0,0017
3905,00;0,0017
3904,00;0,0017
3903,00;0,0017
3902,00;0,0017
3901,00;0,0017
3900,00;0,0017
3899,00;0,0018
3898,00;0,0018
3897,00;0,0018
3896,00;0,0018
3895,00;0,0017
3894,00;0,0017
3893,00;0,0018
3892,00;0,0018
3891,00;0,0018
3890,00;0,0018
3889,00;0,0017
3888,00;0,0017
3887,00;0,0017
3886,00;0,0017
3885,00;0,0016
3884,00;0,0017
3883,00;0,0017
3882,00;0,0017
3881,00;0,0017
3880,00;0,0017
3879,00;0,0017
3878,00;0,0017
3877,00;0,0017
3876,00;0,0017
3875,00;0,0017
3874,00;0,0017
3873,00;0,0017
3872,00;0,0017
3871,00;0,0017
3870,00;0,0017
3869,00;0,0017
3868,00;0,0017
3867,00;0,0017
3866,00;0,0017
3865,00;0,0017
3864,00;0,0017
3863,00;0,0017
3862,00;0,0017
3861,00;0,0017
3860,00;0,0017
3859,00;0,0017
3858,00;0,0017
3857,00;0,0018
3856,00;0,0017
3855,00;0,0017
3854,00;0,0017
3853,00;0,0017
3852,00;0,0017
3851,00;0,0017
3850,00;0,0017
3849,00;0,0017
3848,00;0,0017
3847,00;0,0016
3846,00;0,0016
3845,00;0,0016
3844,00;0,0016
3843,00;0,0017
3842,00;0,0017
3841,00;0,0017
3840,00;0,0017
3839,00;0,0018
3838,00;0,0018
3837,00;0,0018
3836,00;0,0018
3835,00;0,0018
3834,00;0,0018
3833,00;0,0018
3832,00;0,0018
3831,00;0,0017
3830,00;0,0017
3829,00;0,0017
3828,00;0,0017
3827,00;0,0017
3826,00;0,0017
3825,00;0,0017
3824,00;0,0017
3823,00;0,0017
3822,00;0,0017
3821,00;0,0017
3820,00;0,0017
3819,00;0,0017
3818,00;0,0017
3817,00;0,0018
3816,00;0,0018
3815,00;0,0017
3814,00;0,0017
3813,00;0,0017
3812,00;0,0017
3811,00;0,0017
3810,00;0,0017
3809,00;0,0017
3808,00;0,0017
3807,00;0,0017
3806,00;0,0017
3805,00;0,0017
3804,00;0,0017
3803,00;0,0017
3802,00;0,0017
3801,00;0,0017
3800,00;0,0017
3799,00;0,0017
3798,00;0,0017
3797,00;0,0017
3796,00;0,0017
3795,00;0,0017
3794,00;0,0017
3793,00;0,0017
3792,00;0,0017
3791,00;0,0017
3790,00;0,0017
3789,00;0,0017
3788,00;0,0017
3787,00;0,0017
3786,00;0,0017
3785,00;0,0017
3784,00;0,0017
3783,00;0,0017
3782,00;0,0017
3781,00;0,0017
3780,00;0,0017
3779,00;0,0017
3778,00;0,0017
3777,00;0,0017
3776,00;0,0017
3775,00;0,0017
3774,00;0,0017
3773,00;0,0017
3772,00;0,0017
3771,00;0,0017
3770,00;0,0017
3769,00;0,0017
3768,00;0,0017
3767,00;0,0017
3766,00;0,0017
3765,00;0,0017
3764,00;0,0017
3763,00;0,0017
3762,00;0,0017
3761,00;0,0017
3760,00;0,0017
3759,00;0,0017
3758,00;0,0017
3757,00;0,0017
3756,00;0,0017
3755,00;0,0017
3754,00;0,0017
3753,00;0,0017
3752,00;0,0017
3751,00;0,0016
3750,00;0,0016
3749,00;0,0016
3748,00;0,0017
3747,00;0,0018
3746,00;0,0018
3745,00;0,0018
3744,00;0,0017
3743,00;0,0017
3742,00;0,0016
3741,00;0,0016
3740,00;0,0016
3739,00;0,0016
3738,00;0,0016
3737,00;0,0016
3736,00;0,0016
3735,00;0,0016
3734,00;0,0017
3733,00;0,0017
3732,00;0,0017
3731,00;0,0017
3730,00;0,0017
3729,00;0,0017
3728,00;0,0017
3727,00;0,0017
3726,00;0,0017
3725,00;0,0017
3724,00;0,0017
3723,00;0,0017
3722,00;0,0018
3721,00;0,0018
3720,00;0,0018
3719,00;0,0017
3718,00;0,0017
3717,00;0,0017
3716,00;0,0017
3715,00;0,0017
3714,00;0,0017
3713,00;0,0017
3712,00;0,0017
3711,00;0,0018
3710,00;0,0018
3709,00;0,0018
3708,00;0,0018
3707,00;0,0018
3706,00;0,0018
3705,00;0,0018
3704,00;0,0018
3703,00;0,0019
3702,00;0,0019
3701,00;0,0019
3700,00;0,0019
3699,00;0,0019
3698,00;0,0019
3697,00;0,0019
3696,00;0,0019
3695,00;0,0019
3694,00;0,0019
3693,00;0,0019
3692,00;0,0019
3691,00;0,0019
3690,00;0,0019
3689,00;0,0019
3688,00;0,0019
3687,00;0,0019
3686,00;0,0019
3685,00;0,0019
3684,00;0,0019
3683,00;0,0019
3682,00;0,0019
3681,00;0,0019
3680,00;0,0019
3679,00;0,0020
3678,00;0,0020
3677,00;0,0021
3676,00;0,0021
3675,00;0,0021
3674,00;0,0020
3673,00;0,0020
3672,00;0,0020
3671,00;0,0020
3670,00;0,0020
3669,00;0,0020
3668,00;0,0020
3667,00;0,0020
3666,00;0,0020
3665,00;0,0020
3664,00;0,0020
3663,00;0,0019
3662,00;0,0019
3661,00;0,0019
3660,00;0,0020
3659,00;0,0020
3658,00;0,0020
3657,00;0,0020
3656,00;0,0020
3655,00;0,0020
3654,00;0,0020
3653,00;0,0020
3652,00;0,0020
3651,00;0,0020
3650,00;0,0020
3649,00;0,0020
3648,00;0,0020
3647,00;0,0020
3646,00;0,0020
3645,00;0,0019
3644,00;0,0019
3643,00;0,0019
3642,00;0,0019
3641,00;0,0019
3640,00;0,0020
3639,00;0,0020
3638,00;0,0020
3637,00;0,0020
3636,00;0,0020
3635,00;0,0020
3634,00;0,0020
3633,00;0,0020
3632,00;0,0019
3631,00;0,0019
3630,00;0,0019
3629,00;0,0019
3628,00;0,0020
3627,00;0,0020
3626,00;0,0020
3625,00;0,0020
3624,00;0,0020
3623,00;0,0020
3622,00;0,0020
3621,00;0,0020
3620,00;0,0021
3619,00;0,0021
3618,00;0,0021
3617,00;0,0021
3616,00;0,0021
3615,00;0,0021
3614,00;0,0020
3613,00;0,0020
3612,00;0,0020
3611,00;0,0020
3610,00;0,0021
3609,00;0,0021
3608,00;0,0021
3607,00;0,0022
3606,00;0,0022
3605,00;0,0022
3604,00;0,0022
3603,00;0,0022
3602,00;0,0021
3601,00;0,0021
3600,00;0,0021
3599,00;0,0021
3598,00;0,0022
3597,00;0,0022
3596,00;0,0022
3595,00;0,0022
3594,00;0,0022
3593,00;0,0022
3592,00;0,0022
3591,00;0,0022
3590,00;0,0022
3589,00;0,0022
3588,00;0,0022
3587,00;0,0022
3586,00;0,0022
3585,00;0,0022
3584,00;0,0022
3583,00;0,0022
3582,00;0,0022
3581,00;0,0023
3580,00;0,0023
3579,00;0,0023
3578,00;0,0023
3577,00;0,0023
3576,00;0,0023
3575,00;0,0023
3574,00;0,0023
3573,00;0,0023
3572,00;0,0023
3571,00;0,0023
3570,00;0,0023
3569,00;0,0023
3568,00;0,0023
3567,00;0,0024
3566,00;0,0024
3565,00;0,0024
3564,00;0,0024
3563,00;0,0024
3562,00;0,0024
3561,00;0,0024
3560,00;0,0024
3559,00;0,0024
3558,00;0,0024
3557,00;0,0025
3556,00;0,0025
3555,00;0,0025
3554,00;0,0025
3553,00;0,0025
3552,00;0,0025
3551,00;0,0025
3550,00;0,0025
3549,00;0,0025
3548,00;0,0025
3547,00;0,0025
3546,00;0,0025
3545,00;0,0025
3544,00;0,0025
3543,00;0,0025
3542,00;0,0025
3541,00;0,0025
3540,00;0,0025
3539,00;0,0025
3538,00;0,0025
3537,00;0,0025
3536,00;0,0025
3535,00;0,0025
3534,00;0,0025
3533,00;0,0025
3532,00;0,0026
3531,00;0,0026
3530,00;0,0026
3529,00;0,0026
3528,00;0,0026
3527,00;0,0026
3526,00;0,0026
3525,00;0,0026
3524,00;0,0027
3523,00;0,0027
3522,00;0,0027
3521,00;0,0027
3520,00;0,0027
3519,00;0,0027
3518,00;0,0027
3517,00;0,0028
3516,00;0,0028
3515,00;0,0028
3514,00;0,0028
3513,00;0,0028
3512,00;0,0028
3511,00;0,0028
3510,00;0,0028
3509,00;0,0028
3508,00;0,0028
3507,00;0,0028
3506,00;0,0027
3505,00;0,0027
3504,00;0,0027
3503,00;0,0027
3502,00;0,0028
3501,00;0,0028
3500,00;0,0028
3499,00;0,0028
3498,00;0,0028
3497,00;0,0029
3496,00;0,0029
3495,00;0,0029
3494,00;0,0028
3493,00;0,0028
3492,00;0,0029
3491,00;0,0029
3490,00;0,0029
3489,00;0,0029
3488,00;0,0029
3487,00;0,0029
3486,00;0,0029
3485,00;0,0029
3484,00;0,0029
3483,00;0,0029
3482,00;0,0030
3481,00;0,0030
3480,00;0,0030
3479,00;0,0030
3478,00;0,0030
3477,00;0,0030
3476,00;0,0030
3475,00;0,0030
3474,00;0,0030
3473,00;0,0030
3472,00;0,0030
3471,00;0,0030
3470,00;0,0030
3469,00;0,0030
3468,00;0,0030
3467,00;0,0030
3466,00;0,0030
3465,00;0,0030
3464,00;0,0030
3463,00;0,0030
3462,00;0,0030
3461,00;0,0031
3460,00;0,0031
3459,00;0,0031
3458,00;0,0031
3457,00;0,0031
3456,00;0,0031
3455,00;0,0031
3454,00;0,0031
3453,00;0,0031
3452,00;0,0031
3451,00;0,0032
3450,00;0,0032
3449,00;0,0032
3448,00;0,0032
3447,00;0,0032
3446,00;0,0031
3445,00;0,0031
3444,00;0,0031
3443,00;0,0032
3442,00;0,0032
3441,00;0,0032
3440,00;0,0032
3439,00;0,0032
3438,00;0,0032
3437,00;0,0032
3436,00;0,0032
3435,00;0,0033
3434,00;0,0033
3433,00;0,0033
3432,00;0,0032
3431,00;0,0032
3430,00;0,0032
3429,00;0,0032
3428,00;0,0032
3427,00;0,0032
3426,00;0,0032
3425,00;0,0032
3424,00;0,0033
3423,00;0,0033
3422,00;0,0033
3421,00;0,0033
3420,00;0,0033
3419,00;0,0033
3418,00;0,0033
3417,00;0,0033
3416,00;0,0033
3415,00;0,0034
3414,00;0,0034
3413,00;0,0034
3412,00;0,0034
3411,00;0,0034
3410,00;0,0034
3409,00;0,0034
3408,00;0,0034
3407,00;0,0034
3406,00;0,0035
3405,00;0,0035
3404,00;0,0035
3403,00;0,0035
3402,00;0,0035
3401,00;0,0036
3400,00;0,0036
3399,00;0,0036
3398,00;0,0036
3397,00;0,0036
3396,00;0,0036
3395,00;0,0036
3394,00;0,0036
3393,00;0,0036
3392,00;0,0037
3391,00;0,0037
3390,00;0,0037
3389,00;0,0038
3388,00;0,0038
3387,00;0,0038
3386,00;0,0038
3385,00;0,0038
3384,00;0,0038
3383,00;0,0038
3382,00;0,0038
3381,00;0,0039
3380,00;0,0039
3379,00;0,0039
3378,00;0,0039
3377,00;0,0039
3376,00;0,0039
3375,00;0,0040
3374,00;0,0040
3373,00;0,0040
3372,00;0,0041
3371,00;0,0041
3370,00;0,0041
3369,00;0,0041
3368,00;0,0042
3367,00;0,0042
3366,00;0,0042
3365,00;0,0042
3364,00;0,0042
3363,00;0,0043
3362,00;0,0043
3361,00;0,0044
3360,00;0,0045
3359,00;0,0045
3358,00;0,0045
3357,00;0,0045
3356,00;0,0045
3355,00;0,0046
3354,00;0,0046
3353,00;0,0046
3352,00;0,0047
3351,00;0,0047
3350,00;0,0048
3349,00;0,0049
3348,00;0,0049
3347,00;0,0050
3346,00;0,0051
3345,00;0,0052
3344,00;0,0052
3343,00;0,0053
3342,00;0,0054
3341,00;0,0055
3340,00;0,0056
3339,00;0,0057
3338,00;0,0058
3337,00;0,0059
3336,00;0,0061
3335,00;0,0062
3334,00;0,0064
3333,00;0,0065
3332,00;0,0067
3331,00;0,0069
3330,00;0,0071
3329,00;0,0073
3328,00;0,0075
3327,00;0,0077
3326,00;0,0079
3325,00;0,0081
3324,00;0,0084
3323,00;0,0086
3322,00;0,0089
3321,00;0,0092
3320,00;0,0095
3319,00;0,0099
3318,00;0,0102
3317,00;0,0105
3316,00;0,0109
3315,00;0,0112
3314,00;0,0115
3313,00;0,0118
3312,00;0,0121
3311,00;0,0124
3310,00;0,0127
3309,00;0,0130
3308,00;0,0132
3307,00;0,0134
3306,00;0,0135
3305,00;0,0136
3304,00;0,0138
3303,00;0,0139
3302,00;0,0140
3301,00;0,0140
3300,00;0,0140
3299,00;0,0140
3298,00;0,0139
3297,00;0,0138
3296,00;0,0137
3295,00;0,0136
3294,00;0,0134
3293,00;0,0132
3292,00;0,0130
3291,00;0,0129
3290,00;0,0127
3289,00;0,0125
3288,00;0,0122
3287,00;0,0120
3286,00;0,0118
3285,00;0,0115
3284,00;0,0113
3283,00;0,0110
3282,00;0,0107
3281,00;0,0104
3280,00;0,0102
3279,00;0,0099
3278,00;0,0097
3277,00;0,0095
3276,00;0,0092
3275,00;0,0090
3274,00;0,0088
3273,00;0,0086
3272,00;0,0084
3271,00;0,0083
3270,00;0,0081
3269,00;0,0080
3268,00;0,0078
3267,00;0,0077
3266,00;0,0076
3265,00;0,0074
3264,00;0,0073
3263,00;0,0072
3262,00;0,0070
3261,00;0,0069
3260,00;0,0068
3259,00;0,0067
3258,00;0,0065
3257,00;0,0064
3256,00;0,0063
3255,00;0,0062
3254,00;0,0061
3253,00;0,0060
3252,00;0,0059
3251,00;0,0058
3250,00;0,0057
3249,00;0,0056
3248,00;0,0056
3247,00;0,0055
3246,00;0,0054
3245,00;0,0054
3244,00;0,0053
3243,00;0,0052
3242,00;0,0052
3241,00;0,0051
3240,00;0,0050
3239,00;0,0050
3238,00;0,0050
3237,00;0,0049
3236,00;0,0049
3235,00;0,0048
3234,00;0,0048
3233,00;0,0048
3232,00;0,0047
3231,00;0,0047
3230,00;0,0047
3229,00;0,0047
3228,00;0,0046
3227,00;0,0046
3226,00;0,0046
3225,00;0,0046
3224,00;0,0046
3223,00;0,0046
3222,00;0,0046
3221,00;0,0045
3220,00;0,0045
3219,00;0,0045
3218,00;0,0044
3217,00;0,0044
3216,00;0,0044
3215,00;0,0044
3214,00;0,0044
3213,00;0,0044
3212,00;0,0044
3211,00;0,0044
3210,00;0,0043
3209,00;0,0043
3208,00;0,0044
3207,00;0,0044
3206,00;0,0044
3205,00;0,0043
3204,00;0,0043
3203,00;0,0043
3202,00;0,0043
3201,00;0,0042
3200,00;0,0042
3199,00;0,0042
3198,00;0,0042
3197,00;0,0042
3196,00;0,0042
3195,00;0,0041
3194,00;0,0041
3193,00;0,0041
3192,00;0,0041
3191,00;0,0040
3190,00;0,0040
3189,00;0,0040
3188,00;0,0040
3187,00;0,0040
3186,00;0,0039
3185,00;0,0039
3184,00;0,0039
3183,00;0,0039
3182,00;0,0039
3181,00;0,0038
3180,00;0,0038
3179,00;0,0038
3178,00;0,0038
3177,00;0,0038
3176,00;0,0037
3175,00;0,0037
3174,00;0,0037
3173,00;0,0036
3172,00;0,0036
3171,00;0,0036
3170,00;0,0036
3169,00;0,0035
3168,00;0,0035
3167,00;0,0035
3166,00;0,0035
3165,00;0,0035
3164,00;0,0035
3163,00;0,0035
3162,00;0,0035
3161,00;0,0035
3160,00;0,0034
3159,00;0,0034
3158,00;0,0034
3157,00;0,0034
3156,00;0,0034
3155,00;0,0034
3154,00;0,0034
3153,00;0,0033
3152,00;0,0033
3151,00;0,0033
3150,00;0,0034
3149,00;0,0033
3148,00;0,0033
3147,00;0,0033
3146,00;0,0033
3145,00;0,0033
3144,00;0,0033
3143,00;0,0033
3142,00;0,0033
3141,00;0,0033
3140,00;0,0032
3139,00;0,0033
3138,00;0,0033
3137,00;0,0033
3136,00;0,0033
3135,00;0,0033
3134,00;0,0033
3133,00;0,0033
3132,00;0,0032
3131,00;0,0032
3130,00;0,0033
3129,00;0,0033
3128,00;0,0033
3127,00;0,0033
3126,00;0,0033
3125,00;0,0033
3124,00;0,0033
3123,00;0,0033
3122,00;0,0033
3121,00;0,0033
3120,00;0,0033
3119,00;0,0033
3118,00;0,0033
3117,00;0,0033
3116,00;0,0034
3115,00;0,0034
3114,00;0,0034
3113,00;0,0034
3112,00;0,0034
3111,00;0,0035
3110,00;0,0035
3109,00;0,0035
3108,00;0,0035
3107,00;0,0036
3106,00;0,0036
3105,00;0,0037
3104,00;0,0037
3103,00;0,0037
3102,00;0,0038
3101,00;0,0038
3100,00;0,0038
3099,00;0,0039
3098,00;0,0039
3097,00;0,0039
3096,00;0,0040
3095,00;0,0040
3094,00;0,0041
3093,00;0,0041
3092,00;0,0042
3091,00;0,0042
3090,00;0,0043
3089,00;0,0043
3088,00;0,0043
3087,00;0,0043
3086,00;0,0043
3085,00;0,0043
3084,00;0,0042
3083,00;0,0042
3082,00;0,0042
3081,00;0,0041
3080,00;0,0041
3079,00;0,0041
3078,00;0,0041
3077,00;0,0040
3076,00;0,0040
3075,00;0,0040
3074,00;0,0039
3073,00;0,0039
3072,00;0,0039
3071,00;0,0038
3070,00;0,0038
3069,00;0,0037
3068,00;0,0037
3067,00;0,0036
3066,00;0,0036
3065,00;0,0036
3064,00;0,0036
3063,00;0,0036
3062,00;0,0035
3061,00;0,0035
3060,00;0,0035
3059,00;0,0034
3058,00;0,0034
3057,00;0,0034
3056,00;0,0034
3055,00;0,0033
3054,00;0,0033
3053,00;0,0033
3052,00;0,0033
3051,00;0,0032
3050,00;0,0032
3049,00;0,0032
3048,00;0,0031
3047,00;0,0031
3046,00;0,0030
3045,00;0,0030
3044,00;0,0030
3043,00;0,0030
3042,00;0,0030
3041,00;0,0030
3040,00;0,0030
3039,00;0,0029
3038,00;0,0029
3037,00;0,0029
3036,00;0,0029
3035,00;0,0029
3034,00;0,0029
3033,00;0,0029
3032,00;0,0029
3031,00;0,0029
3030,00;0,0029
3029,00;0,0029
3028,00;0,0029
3027,00;0,0029
3026,00;0,0029
3025,00;0,0029
3024,00;0,0029
3023,00;0,0029
3022,00;0,0029
3021,00;0,0029
3020,00;0,0030
3019,00;0,0030
3018,00;0,0030
3017,00;0,0030
3016,00;0,0030
3015,00;0,0030
3014,00;0,0031
3013,00;0,0031
3012,00;0,0031
3011,00;0,0031
3010,00;0,0031
3009,00;0,0032
3008,00;0,0032
3007,00;0,0032
3006,00;0,0032
3005,00;0,0032
3004,00;0,0033
3003,00;0,0033
3002,00;0,0033
3001,00;0,0034
3000,00;0,0034
2999,00;0,0034
2998,00;0,0034
2997,00;0,0034
2996,00;0,0034
2995,00;0,0035
2994,00;0,0035
2993,00;0,0036
2992,00;0,0036
2991,00;0,0037
2990,00;0,0038
2989,00;0,0038
2988,00;0,0039
2987,00;0,0039
2986,00;0,0040
2985,00;0,0040
2984,00;0,0041
2983,00;0,0042
2982,00;0,0042
2981,00;0,0043
2980,00;0,0045
2979,00;0,0046
2978,00;0,0047
2977,00;0,0048
2976,00;0,0050
2975,00;0,0051
2974,00;0,0053
2973,00;0,0055
2972,00;0,0057
2971,00;0,0059
2970,00;0,0061
2969,00;0,0064
2968,00;0,0066
2967,00;0,0069
2966,00;0,0071
2965,00;0,0074
2964,00;0,0077
2963,00;0,0079
2962,00;0,0082
2961,00;0,0085
2960,00;0,0087
2959,00;0,0090
2958,00;0,0092
2957,00;0,0094
2956,00;0,0096
2955,00;0,0097
2954,00;0,0100
2953,00;0,0102
2952,00;0,0105
2951,00;0,0109
2950,00;0,0112
2949,00;0,0117
2948,00;0,0122
2947,00;0,0127
2946,00;0,0132
2945,00;0,0137
2944,00;0,0142
2943,00;0,0148
2942,00;0,0154
2941,00;0,0161
2940,00;0,0169
2939,00;0,0177
2938,00;0,0186
2937,00;0,0196
2936,00;0,0207
2935,00;0,0217
2934,00;0,0228
2933,00;0,0239
2932,00;0,0250
2931,00;0,0261
2930,00;0,0272
2929,00;0,0283
2928,00;0,0295
2927,00;0,0307
2926,00;0,0320
2925,00;0,0333
2924,00;0,0346
2923,00;0,0358
2922,00;0,0368
2921,00;0,0373
2920,00;0,0374
2919,00;0,0370
2918,00;0,0362
2917,00;0,0350
2916,00;0,0335
2915,00;0,0318
2914,00;0,0299
2913,00;0,0280
2912,00;0,0260
2911,00;0,0240
2910,00;0,0223
2909,00;0,0207
2908,00;0,0194
2907,00;0,0182
2906,00;0,0173
2905,00;0,0165
2904,00;0,0159
2903,00;0,0153
2902,00;0,0148
2901,00;0,0143
2900,00;0,0139
2899,00;0,0134
2898,00;0,0130
2897,00;0,0125
2896,00;0,0121
2895,00;0,0117
2894,00;0,0114
2893,00;0,0111
2892,00;0,0108
2891,00;0,0105
2890,00;0,0103
2889,00;0,0100
2888,00;0,0098
2887,00;0,0096
2886,00;0,0095
2885,00;0,0093
2884,00;0,0092
2883,00;0,0091
2882,00;0,0090
2881,00;0,0090
2880,00;0,0090
2879,00;0,0090
2878,00;0,0091
2877,00;0,0092
2876,00;0,0093
2875,00;0,0094
2874,00;0,0096
2873,00;0,0098
2872,00;0,0100
2871,00;0,0102
2870,00;0,0104
2869,00;0,0106
2868,00;0,0109
2867,00;0,0112
2866,00;0,0115
2865,00;0,0120
2864,00;0,0125
2863,00;0,0130
2862,00;0,0137
2861,00;0,0145
2860,00;0,0154
2859,00;0,0165
2858,00;0,0177
2857,00;0,0189
2856,00;0,0202
2855,00;0,0215
2854,00;0,0227
2853,00;0,0236
2852,00;0,0242
2851,00;0,0243
2850,00;0,0238
2849,00;0,0227
2848,00;0,0212
2847,00;0,0193
2846,00;0,0174
2845,00;0,0154
2844,00;0,0135
2843,00;0,0118
2842,00;0,0103
2841,00;0,0091
2840,00;0,0081
2839,00;0,0074
2838,00;0,0067
2837,00;0,0062
2836,00;0,0058
2835,00;0,0055
2834,00;0,0052
2833,00;0,0050
2832,00;0,0048
2831,00;0,0046
2830,00;0,0045
2829,00;0,0043
2828,00;0,0042
2827,00;0,0041
2826,00;0,0041
2825,00;0,0040
2824,00;0,0039
2823,00;0,0038
2822,00;0,0037
2821,00;0,0037
2820,00;0,0036
2819,00;0,0036
2818,00;0,0035
2817,00;0,0035
2816,00;0,0034
2815,00;0,0034
2814,00;0,0033
2813,00;0,0033
2812,00;0,0033
2811,00;0,0032
2810,00;0,0032
2809,00;0,0031
2808,00;0,0031
2807,00;0,0030
2806,00;0,0030
2805,00;0,0030
2804,00;0,0030
2803,00;0,0029
2802,00;0,0029
2801,00;0,0029
2800,00;0,0029
2799,00;0,0028
2798,00;0,0028
2797,00;0,0028
2796,00;0,0027
2795,00;0,0027
2794,00;0,0027
2793,00;0,0027
2792,00;0,0027
2791,00;0,0027
2790,00;0,0027
2789,00;0,0027
2788,00;0,0026
2787,00;0,0026
2786,00;0,0026
2785,00;0,0026
2784,00;0,0026
2783,00;0,0025
2782,00;0,0025
2781,00;0,0025
2780,00;0,0025
2779,00;0,0025
2778,00;0,0025
2777,00;0,0025
2776,00;0,0025
2775,00;0,0024
2774,00;0,0024
2773,00;0,0024
2772,00;0,0024
2771,00;0,0024
2770,00;0,0024
2769,00;0,0024
2768,00;0,0024
2767,00;0,0024
2766,00;0,0024
2765,00;0,0023
2764,00;0,0023
2763,00;0,0023
2762,00;0,0023
2761,00;0,0023
2760,00;0,0023
2759,00;0,0023
2758,00;0,0023
2757,00;0,0023
2756,00;0,0023
2755,00;0,0023
2754,00;0,0023
2753,00;0,0023
2752,00;0,0023
2751,00;0,0023
2750,00;0,0023
2749,00;0,0023
2748,00;0,0023
2747,00;0,0023
2746,00;0,0023
2745,00;0,0023
2744,00;0,0023
2743,00;0,0022
2742,00;0,0022
2741,00;0,0022
2740,00;0,0022
2739,00;0,0022
2738,00;0,0022
2737,00;0,0022
2736,00;0,0022
2735,00;0,0022
2734,00;0,0022
2733,00;0,0022
2732,00;0,0022
2731,00;0,0022
2730,00;0,0022
2729,00;0,0022
2728,00;0,0022
2727,00;0,0022
2726,00;0,0022
2725,00;0,0021
2724,00;0,0021
2723,00;0,0021
2722,00;0,0021
2721,00;0,0021
2720,00;0,0021
2719,00;0,0021
2718,00;0,0021
2717,00;0,0021
2716,00;0,0021
2715,00;0,0021
2714,00;0,0021
2713,00;0,0021
2712,00;0,0021
2711,00;0,0021
2710,00;0,0021
2709,00;0,0021
2708,00;0,0021
2707,00;0,0021
2706,00;0,0021
2705,00;0,0021
2704,00;0,0020
2703,00;0,0020
2702,00;0,0020
2701,00;0,0020
2700,00;0,0020
2699,00;0,0020
2698,00;0,0020
2697,00;0,0020
2696,00;0,0021
2695,00;0,0021
2694,00;0,0021
2693,00;0,0021
2692,00;0,0021
2691,00;0,0021
2690,00;0,0021
2689,00;0,0021
2688,00;0,0021
2687,00;0,0021
2686,00;0,0020
2685,00;0,0020
2684,00;0,0020
2683,00;0,0020
2682,00;0,0020
2681,00;0,0020
2680,00;0,0020
2679,00;0,0021
2678,00;0,0020
2677,00;0,0020
2676,00;0,0020
2675,00;0,0020
2674,00;0,0020
2673,00;0,0020
2672,00;0,0020
2671,00;0,0020
2670,00;0,0020
2669,00;0,0020
2668,00;0,0020
2667,00;0,0020
2666,00;0,0020
2665,00;0,0020
2664,00;0,0020
2663,00;0,0020
2662,00;0,0020
2661,00;0,0020
2660,00;0,0020
2659,00;0,0020
2658,00;0,0020
2657,00;0,0020
2656,00;0,0020
2655,00;0,0020
2654,00;0,0019
2653,00;0,0019
2652,00;0,0019
2651,00;0,0019
2650,00;0,0019
2649,00;0,0019
2648,00;0,0019
2647,00;0,0019
2646,00;0,0019
2645,00;0,0019
2644,00;0,0019
2643,00;0,0019
2642,00;0,0019
2641,00;0,0019
2640,00;0,0019
2639,00;0,0019
2638,00;0,0019
2637,00;0,0019
2636,00;0,0019
2635,00;0,0019
2634,00;0,0019
2633,00;0,0019
2632,00;0,0019
2631,00;0,0019
2630,00;0,0019
2629,00;0,0019
2628,00;0,0019
2627,00;0,0019
2626,00;0,0019
2625,00;0,0019
2624,00;0,0019
2623,00;0,0019
2622,00;0,0019
2621,00;0,0019
2620,00;0,0019
2619,00;0,0019
2618,00;0,0018
2617,00;0,0018
2616,00;0,0018
2615,00;0,0018
2614,00;0,0018
2613,00;0,0018
2612,00;0,0018
2611,00;0,0018
2610,00;0,0018
2609,00;0,0018
2608,00;0,0018
2607,00;0,0018
2606,00;0,0018
2605,00;0,0018
2604,00;0,0018
2603,00;0,0018
2602,00;0,0018
2601,00;0,0018
2600,00;0,0018
2599,00;0,0018
2598,00;0,0018
2597,00;0,0018
2596,00;0,0018
2595,00;0,0018
2594,00;0,0018
2593,00;0,0018
2592,00;0,0018
2591,00;0,0018
2590,00;0,0018
2589,00;0,0017
2588,00;0,0017
2587,00;0,0017
2586,00;0,0017
2585,00;0,0017
2584,00;0,0017
2583,00;0,0017
2582,00;0,0017
2581,00;0,0017
2580,00;0,0018
2579,00;0,0018
2578,00;0,0018
2577,00;0,0018
2576,00;0,0017
2575,00;0,0017
2574,00;0,0017
2573,00;0,0017
2572,00;0,0017
2571,00;0,0017
2570,00;0,0017
2569,00;0,0017
2568,00;0,0017
2567,00;0,0017
2566,00;0,0017
2565,00;0,0017
2564,00;0,0017
2563,00;0,0017
2562,00;0,0017
2561,00;0,0017
2560,00;0,0017
2559,00;0,0017
2558,00;0,0017
2557,00;0,0017
2556,00;0,0017
2555,00;0,0017
2554,00;0,0017
2553,00;0,0016
2552,00;0,0016
2551,00;0,0016
2550,00;0,0017
2549,00;0,0017
2548,00;0,0017
2547,00;0,0017
2546,00;0,0017
2545,00;0,0017
2544,00;0,0016
2543,00;0,0016
2542,00;0,0016
2541,00;0,0016
2540,00;0,0016
2539,00;0,0016
2538,00;0,0016
2537,00;0,0016
2536,00;0,0016
2535,00;0,0016
2534,00;0,0016
2533,00;0,0016
2532,00;0,0016
2531,00;0,0016
2530,00;0,0016
2529,00;0,0016
2528,00;0,0016
2527,00;0,0016
2526,00;0,0016
2525,00;0,0016
2524,00;0,0016
2523,00;0,0016
2522,00;0,0016
2521,00;0,0016
2520,00;0,0016
2519,00;0,0016
2518,00;0,0016
2517,00;0,0016
2516,00;0,0016
2515,00;0,0016
2514,00;0,0016
2513,00;0,0016
2512,00;0,0016
2511,00;0,0016
2510,00;0,0016
2509,00;0,0016
2508,00;0,0016
2507,00;0,0016
2506,00;0,0016
2505,00;0,0016
2504,00;0,0016
2503,00;0,0016
2502,00;0,0016
2501,00;0,0016
2500,00;0,0016
2499,00;0,0016
2498,00;0,0016
2497,00;0,0016
2496,00;0,0016
2495,00;0,0016
2494,00;0,0016
2493,00;0,0016
2492,00;0,0016
2491,00;0,0016
2490,00;0,0016
2489,00;0,0016
2488,00;0,0015
2487,00;0,0015
2486,00;0,0015
2485,00;0,0016
2484,00;0,0015
2483,00;0,0015
2482,00;0,0015
2481,00;0,0015
2480,00;0,0016
2479,00;0,0016
2478,00;0,0016
2477,00;0,0015
2476,00;0,0015
2475,00;0,0015
2474,00;0,0015
2473,00;0,0015
2472,00;0,0015
2471,00;0,0015
2470,00;0,0015
2469,00;0,0015
2468,00;0,0015
2467,00;0,0015
2466,00;0,0015
2465,00;0,0015
2464,00;0,0015
2463,00;0,0015
2462,00;0,0015
2461,00;0,0015
2460,00;0,0015
2459,00;0,0015
2458,00;0,0015
2457,00;0,0015
2456,00;0,0015
2455,00;0,0015
2454,00;0,0015
2453,00;0,0015
2452,00;0,0015
2451,00;0,0015
2450,00;0,0015
2449,00;0,0015
2448,00;0,0015
2447,00;0,0015
2446,00;0,0015
2445,00;0,0015
2444,00;0,0015
2443,00;0,0015
2442,00;0,0015
2441,00;0,0015
2440,00;0,0015
2439,00;0,0015
2438,00;0,0015
2437,00;0,0015
2436,00;0,0015
2435,00;0,0015
2434,00;0,0015
2433,00;0,0015
2432,00;0,0015
2431,00;0,0015
2430,00;0,0015
2429,00;0,0015
2428,00;0,0015
2427,00;0,0015
2426,00;0,0015
2425,00;0,0015
2424,00;0,0015
2423,00;0,0015
2422,00;0,0015
2421,00;0,0015
2420,00;0,0015
2419,00;0,0015
2418,00;0,0015
2417,00;0,0015
2416,00;0,0015
2415,00;0,0015
2414,00;0,0015
2413,00;0,0015
2412,00;0,0015
2411,00;0,0015
2410,00;0,0015
2409,00;0,0015
2408,00;0,0015
2407,00;0,0015
2406,00;0,0015
2405,00;0,0015
2404,00;0,0015
2403,00;0,0015
2402,00;0,0015
2401,00;0,0015
2400,00;0,0015
2399,00;0,0015
2398,00;0,0015
2397,00;0,0015
2396,00;0,0015
2395,00;0,0015
2394,00;0,0015
2393,00;0,0015
2392,00;0,0015
2391,00;0,0015
2390,00;0,0015
2389,00;0,0015
2388,00;0,0015
2387,00;0,0015
2386,00;0,0015
2385,00;0,0015
2384,00;0,0016
2383,00;0,0016
2382,00;0,0016
2381,00;0,0015
2380,00;0,0015
2379,00;0,0014
2378,00;0,0014
2377,00;0,0013
2376,00;0,0013
2375,00;0,0014
2374,00;0,0014
2373,00;0,0014
2372,00;0,0015
2371,00;0,0015
2370,00;0,0015
2369,00;0,0016
2368,00;0,0016
2367,00;0,0016
2366,00;0,0015
2365,00;0,0015
2364,00;0,0015
2363,00;0,0015
2362,00;0,0015
2361,00;0,0014
2360,00;0,0014
2359,00;0,0014
2358,00;0,0014
2357,00;0,0015
2356,00;0,0015
2355,00;0,0015
2354,00;0,0015
2353,00;0,0015
2352,00;0,0015
2351,00;0,0015
2350,00;0,0015
2349,00;0,0015
2348,00;0,0015
2347,00;0,0015
2346,00;0,0015
2345,00;0,0015
2344,00;0,0016
2343,00;0,0017
2342,00;0,0016
2341,00;0,0016
2340,00;0,0015
2339,00;0,0014
2338,00;0,0013
2337,00;0,0013
2336,00;0,0013
2335,00;0,0014
2334,00;0,0014
2333,00;0,0014
2332,00;0,0015
2331,00;0,0015
2330,00;0,0016
2329,00;0,0016
2328,00;0,0016
2327,00;0,0017
2326,00;0,0017
2325,00;0,0016
2324,00;0,0016
2323,00;0,0016
2322,00;0,0016
2321,00;0,0016
2320,00;0,0016
2319,00;0,0016
2318,00;0,0016
2317,00;0,0016
2316,00;0,0016
2315,00;0,0015
2314,00;0,0016
2313,00;0,0016
2312,00;0,0016
2311,00;0,0017
2310,00;0,0017
2309,00;0,0017
2308,00;0,0017
2307,00;0,0017
2306,00;0,0016
2305,00;0,0016
2304,00;0,0016
2303,00;0,0016
2302,00;0,0016
2301,00;0,0017
2300,00;0,0017
2299,00;0,0017
2298,00;0,0016
2297,00;0,0016
2296,00;0,0016
2295,00;0,0016
2294,00;0,0016
2293,00;0,0015
2292,00;0,0015
2291,00;0,0015
2290,00;0,0015
2289,00;0,0015
2288,00;0,0014
2287,00;0,0014
2286,00;0,0014
2285,00;0,0015
2284,00;0,0014
2283,00;0,0014
2282,00;0,0014
2281,00;0,0014
2280,00;0,0014
2279,00;0,0014
2278,00;0,0014
2277,00;0,0014
2276,00;0,0014
2275,00;0,0014
2274,00;0,0014
2273,00;0,0014
2272,00;0,0014
2271,00;0,0014
2270,00;0,0014
2269,00;0,0014
2268,00;0,0014
2267,00;0,0014
2266,00;0,0014
2265,00;0,0014
2264,00;0,0014
2263,00;0,0014
2262,00;0,0014
2261,00;0,0014
2260,00;0,0014
2259,00;0,0014
2258,00;0,0014
2257,00;0,0014
2256,00;0,0014
2255,00;0,0014
2254,00;0,0014
2253,00;0,0014
2252,00;0,0014
2251,00;0,0014
2250,00;0,0014
2249,00;0,0014
2248,00;0,0014
2247,00;0,0014
2246,00;0,0014
2245,00;0,0014
2244,00;0,0014
2243,00;0,0014
2242,00;0,0014
2241,00;0,0014
2240,00;0,0014
2239,00;0,0014
2238,00;0,0014
2237,00;0,0013
2236,00;0,0013
2235,00;0,0013
2234,00;0,0014
2233,00;0,0014
2232,00;0,0014
2231,00;0,0014
2230,00;0,0013
2229,00;0,0013
2228,00;0,0013
2227,00;0,0013
2226,00;0,0013
2225,00;0,0013
2224,00;0,0013
2223,00;0,0013
2222,00;0,0013
2221,00;0,0013
2220,00;0,0013
2219,00;0,0013
2218,00;0,0013
2217,00;0,0013
2216,00;0,0013
2215,00;0,0013
2214,00;0,0013
2213,00;0,0013
2212,00;0,0013
2211,00;0,0013
2210,00;0,0013
2209,00;0,0013
2208,00;0,0013
2207,00;0,0013
2206,00;0,0013
2205,00;0,0013
2204,00;0,0013
2203,00;0,0013
2202,00;0,0013
2201,00;0,0013
2200,00;0,0013
2199,00;0,0013
2198,00;0,0013
2197,00;0,0013
2196,00;0,0013
2195,00;0,0013
2194,00;0,0013
2193,00;0,0013
2192,00;0,0013
2191,00;0,0013
2190,00;0,0013
2189,00;0,0013
2188,00;0,0013
2187,00;0,0013
2186,00;0,0013
2185,00;0,0013
2184,00;0,0013
2183,00;0,0013
2182,00;0,0013
2181,00;0,0013
2180,00;0,0013
2179,00;0,0013
2178,00;0,0013
2177,00;0,0013
2176,00;0,0013
2175,00;0,0013
2174,00;0,0013
2173,00;0,0013
2172,00;0,0013
2171,00;0,0013
2170,00;0,0013
2169,00;0,0013
2168,00;0,0013
2167,00;0,0013
2166,00;0,0013
2165,00;0,0013
2164,00;0,0013
2163,00;0,0013
2162,00;0,0013
2161,00;0,0013
2160,00;0,0013
2159,00;0,0013
2158,00;0,0013
2157,00;0,0013
2156,00;0,0013
2155,00;0,0013
2154,00;0,0013
2153,00;0,0013
2152,00;0,0013
2151,00;0,0013
2150,00;0,0013
2149,00;0,0013
2148,00;0,0013
2147,00;0,0013
2146,00;0,0013
2145,00;0,0013
2144,00;0,0013
2143,00;0,0013
2142,00;0,0013
2141,00;0,0013
2140,00;0,0013
2139,00;0,0013
2138,00;0,0013
2137,00;0,0013
2136,00;0,0013
2135,00;0,0013
2134,00;0,0013
2133,00;0,0013
2132,00;0,0013
2131,00;0,0013
2130,00;0,0013
2129,00;0,0013
2128,00;0,0013
2127,00;0,0013
2126,00;0,0013
2125,00;0,0013
2124,00;0,0013
2123,00;0,0013
2122,00;0,0013
2121,00;0,0013
2120,00;0,0013
2119,00;0,0013
2118,00;0,0013
2117,00;0,0013
2116,00;0,0013
2115,00;0,0013
2114,00;0,0013
2113,00;0,0013
2112,00;0,0013
2111,00;0,0013
2110,00;0,0013
2109,00;0,0013
2108,00;0,0013
2107,00;0,0013
2106,00;0,0013
2105,00;0,0013
2104,00;0,0013
2103,00;0,0013
2102,00;0,0013
2101,00;0,0013
2100,00;0,0013
2099,00;0,0013
2098,00;0,0013
2097,00;0,0013
2096,00;0,0013
2095,00;0,0013
2094,00;0,0013
2093,00;0,0013
2092,00;0,0013
2091,00;0,0013
2090,00;0,0013
2089,00;0,0013
2088,00;0,0013
2087,00;0,0013
2086,00;0,0013
2085,00;0,0013
2084,00;0,0013
2083,00;0,0013
2082,00;0,0013
2081,00;0,0013
2080,00;0,0013
2079,00;0,0013
2078,00;0,0013
2077,00;0,0013
2076,00;0,0013
2075,00;0,0013
2074,00;0,0013
2073,00;0,0013
2072,00;0,0013
2071,00;0,0013
2070,00;0,0013
2069,00;0,0013
2068,00;0,0013
2067,00;0,0013
2066,00;0,0013
2065,00;0,0013
2064,00;0,0013
2063,00;0,0013
2062,00;0,0013
2061,00;0,0013
2060,00;0,0013
2059,00;0,0013
2058,00;0,0013
2057,00;0,0013
2056,00;0,0013
2055,00;0,0013
2054,00;0,0013
2053,00;0,0013
2052,00;0,0013
2051,00;0,0013
2050,00;0,0013
2049,00;0,0013
2048,00;0,0013
2047,00;0,0013
2046,00;0,0013
2045,00;0,0013
2044,00;0,0013
2043,00;0,0013
2042,00;0,0013
2041,00;0,0013
2040,00;0,0013
2039,00;0,0013
2038,00;0,0013
2037,00;0,0013
2036,00;0,0013
2035,00;0,0013
2034,00;0,0013
2033,00;0,0013
2032,00;0,0013
2031,00;0,0013
2030,00;0,0013
2029,00;0,0013
2028,00;0,0013
2027,00;0,0013
2026,00;0,0013
2025,00;0,0013
2024,00;0,0013
2023,00;0,0013
2022,00;0,0013
2021,00;0,0013
2020,00;0,0013
2019,00;0,0013
2018,00;0,0013
2017,00;0,0013
2016,00;0,0013
2015,00;0,0013
2014,00;0,0013
2013,00;0,0013
2012,00;0,0013
2011,00;0,0013
2010,00;0,0013
2009,00;0,0013
2008,00;0,0013
2007,00;0,0013
2006,00;0,0013
2005,00;0,0013
2004,00;0,0013
2003,00;0,0013
2002,00;0,0013
2001,00;0,0013
2000,00;0,0013
1999,00;0,0013
1998,00;0,0013
1997,00;0,0013
1996,00;0,0013
1995,00;0,0013
1994,00;0,0013
1993,00;0,0013
1992,00;0,0013
1991,00;0,0013
1990,00;0,0013
1989,00;0,0013
1988,00;0,0013
1987,00;0,0013
1986,00;0,0013
1985,00;0,0013
1984,00;0,0013
1983,00;0,0013
1982,00;0,0013
1981,00;0,0013
1980,00;0,0013
1979,00;0,0013
1978,00;0,0013
1977,00;0,0013
1976,00;0,0013
1975,00;0,0013
1974,00;0,0013
1973,00;0,0013
1972,00;0,0013
1971,00;0,0013
1970,00;0,0013
1969,00;0,0013
1968,00;0,0013
1967,00;0,0013
1966,00;0,0013
1965,00;0,0013
1964,00;0,0013
1963,00;0,0013
1962,00;0,0013
1961,00;0,0013
1960,00;0,0013
1959,00;0,0013
1958,00;0,0013
1957,00;0,0013
1956,00;0,0013
1955,00;0,0013
1954,00;0,0013
1953,00;0,0013
1952,00;0,0013
1951,00;0,0013
1950,00;0,0013
1949,00;0,0013
1948,00;0,0013
1947,00;0,0013
1946,00;0,0013
1945,00;0,0013
1944,00;0,0013
1943,00;0,0013
1942,00;0,0013
1941,00;0,0013
1940,00;0,0013
1939,00;0,0013
1938,00;0,0013
1937,00;0,0013
1936,00;0,0013
1935,00;0,0013
1934,00;0,0013
1933,00;0,0013
1932,00;0,0013
1931,00;0,0013
1930,00;0,0013
1929,00;0,0013
1928,00;0,0013
1927,00;0,0013
1926,00;0,0013
1925,00;0,0013
1924,00;0,0013
1923,00;0,0013
1922,00;0,0013
1921,00;0,0013
1920,00;0,0013
1919,00;0,0013
1918,00;0,0013
1917,00;0,0013
1916,00;0,0013
1915,00;0,0013
1914,00;0,0013
1913,00;0,0013
1912,00;0,0013
1911,00;0,0013
1910,00;0,0013
1909,00;0,0013
1908,00;0,0013
1907,00;0,0013
1906,00;0,0013
1905,00;0,0013
1904,00;0,0013
1903,00;0,0013
1902,00;0,0013
1901,00;0,0013
1900,00;0,0013
1899,00;0,0013
1898,00;0,0013
1897,00;0,0013
1896,00;0,0013
1895,00;0,0013
1894,00;0,0013
1893,00;0,0013
1892,00;0,0013
1891,00;0,0013
1890,00;0,0013
1889,00;0,0013
1888,00;0,0013
1887,00;0,0013
1886,00;0,0013
1885,00;0,0013
1884,00;0,0013
1883,00;0,0013
1882,00;0,0013
1881,00;0,0013
1880,00;0,0013
1879,00;0,0013
1878,00;0,0013
1877,00;0,0013
1876,00;0,0013
1875,00;0,0013
1874,00;0,0013
1873,00;0,0013
1872,00;0,0013
1871,00;0,0013
1870,00;0,0012
1869,00;0,0012
1868,00;0,0013
1867,00;0,0013
1866,00;0,0013
1865,00;0,0013
1864,00;0,0013
1863,00;0,0013
1862,00;0,0013
1861,00;0,0013
1860,00;0,0013
1859,00;0,0013
1858,00;0,0013
1857,00;0,0013
1856,00;0,0013
1855,00;0,0013
1854,00;0,0013
1853,00;0,0013
1852,00;0,0013
1851,00;0,0013
1850,00;0,0013
1849,00;0,0013
1848,00;0,0013
1847,00;0,0013
1846,00;0,0013
1845,00;0,0012
1844,00;0,0012
1843,00;0,0013
1842,00;0,0013
1841,00;0,0013
1840,00;0,0013
1839,00;0,0013
1838,00;0,0013
1837,00;0,0013
1836,00;0,0013
1835,00;0,0013
1834,00;0,0013
1833,00;0,0013
1832,00;0,0013
1831,00;0,0013
1830,00;0,0013
1829,00;0,0013
1828,00;0,0013
1827,00;0,0013
1826,00;0,0013
1825,00;0,0013
1824,00;0,0013
1823,00;0,0013
1822,00;0,0013
1821,00;0,0013
1820,00;0,0013
1819,00;0,0014
1818,00;0,0014
1817,00;0,0014
1816,00;0,0014
1815,00;0,0014
1814,00;0,0014
1813,00;0,0014
1812,00;0,0014
1811,00;0,0014
1810,00;0,0014
1809,00;0,0014
1808,00;0,0014
1807,00;0,0014
1806,00;0,0014
1805,00;0,0014
1804,00;0,0014
1803,00;0,0014
1802,00;0,0014
1801,00;0,0014
1800,00;0,0014
1799,00;0,0014
1798,00;0,0014
1797,00;0,0014
1796,00;0,0014
1795,00;0,0014
1794,00;0,0014
1793,00;0,0014
1792,00;0,0014
1791,00;0,0014
1790,00;0,0015
1789,00;0,0015
1788,00;0,0015
1787,00;0,0015
1786,00;0,0015
1785,00;0,0015
1784,00;0,0015
1783,00;0,0015
1782,00;0,0016
1781,00;0,0016
1780,00;0,0016
1779,00;0,0016
1778,00;0,0017
1777,00;0,0017
1776,00;0,0017
1775,00;0,0016
1774,00;0,0016
1773,00;0,0017
1772,00;0,0017
1771,00;0,0018
1770,00;0,0018
1769,00;0,0018
1768,00;0,0018
1767,00;0,0019
1766,00;0,0019
1765,00;0,0020
1764,00;0,0020
1763,00;0,0021
1762,00;0,0022
1761,00;0,0023
1760,00;0,0024
1759,00;0,0025
1758,00;0,0025
1757,00;0,0026
1756,00;0,0028
1755,00;0,0029
1754,00;0,0030
1753,00;0,0031
1752,00;0,0033
1751,00;0,0034
1750,00;0,0036
1749,00;0,0038
1748,00;0,0040
1747,00;0,0042
1746,00;0,0044
1745,00;0,0045
1744,00;0,0047
1743,00;0,0048
1742,00;0,0049
1741,00;0,0050
1740,00;0,0050
1739,00;0,0050
1738,00;0,0050
1737,00;0,0050
1736,00;0,0049
1735,00;0,0048
1734,00;0,0046
1733,00;0,0046
1732,00;0,0045
1731,00;0,0045
1730,00;0,0045
1729,00;0,0044
1728,00;0,0044
1727,00;0,0043
1726,00;0,0043
1725,00;0,0042
1724,00;0,0042
1723,00;0,0041
1722,00;0,0041
1721,00;0,0041
1720,00;0,0041
1719,00;0,0040
1718,00;0,0039
1717,00;0,0038
1716,00;0,0037
1715,00;0,0038
1714,00;0,0038
1713,00;0,0037
1712,00;0,0037
1711,00;0,0037
1710,00;0,0037
1709,00;0,0037
1708,00;0,0037
1707,00;0,0037
1706,00;0,0036
1705,00;0,0036
1704,00;0,0036
1703,00;0,0036
1702,00;0,0036
1701,00;0,0036
1700,00;0,0036
1699,00;0,0036
1698,00;0,0036
1697,00;0,0036
1696,00;0,0038
1695,00;0,0039
1694,00;0,0040
1693,00;0,0040
1692,00;0,0041
1691,00;0,0041
1690,00;0,0042
1689,00;0,0043
1688,00;0,0044
1687,00;0,0045
1686,00;0,0046
1685,00;0,0048
1684,00;0,0052
1683,00;0,0054
1682,00;0,0056
1681,00;0,0057
1680,00;0,0059
1679,00;0,0061
1678,00;0,0063
1677,00;0,0065
1676,00;0,0068
1675,00;0,0072
1674,00;0,0075
1673,00;0,0078
1672,00;0,0081
1671,00;0,0085
1670,00;0,0091
1669,00;0,0098
1668,00;0,0105
1667,00;0,0111
1666,00;0,0116
1665,00;0,0122
1664,00;0,0130
1663,00;0,0140
1662,00;0,0150
1661,00;0,0159
1660,00;0,0168
1659,00;0,0177
1658,00;0,0186
1657,00;0,0194
1656,00;0,0202
1655,00;0,0214
1654,00;0,0237
1653,00;0,0274
1652,00;0,0302
1651,00;0,0319
1650,00;0,0334
1649,00;0,0355
1648,00;0,0389
1647,00;0,0436
1646,00;0,0481
1645,00;0,0512
1644,00;0,0534
1643,00;0,0552
1642,00;0,0567
1641,00;0,0580
1640,00;0,0588
1639,00;0,0591
1638,00;0,0587
1637,00;0,0571
1636,00;0,0536
1635,00;0,0492
1634,00;0,0453
1633,00;0,0419
1632,00;0,0387
1631,00;0,0356
1630,00;0,0326
1629,00;0,0297
1628,00;0,0271
1627,00;0,0250
1626,00;0,0233
1625,00;0,0218
1624,00;0,0203
1623,00;0,0188
1622,00;0,0176
1621,00;0,0167
1620,00;0,0160
1619,00;0,0153
1618,00;0,0146
1617,00;0,0138
1616,00;0,0131
1615,00;0,0125
1614,00;0,0122
1613,00;0,0118
1612,00;0,0115
1611,00;0,0111
1610,00;0,0108
1609,00;0,0105
1608,00;0,0101
1607,00;0,0098
1606,00;0,0095
1605,00;0,0092
1604,00;0,0089
1603,00;0,0086
1602,00;0,0084
1601,00;0,0082
1600,00;0,0081
1599,00;0,0079
1598,00;0,0079
1597,00;0,0078
1596,00;0,0077
1595,00;0,0076
1594,00;0,0076
1593,00;0,0076
1592,00;0,0076
1591,00;0,0076
1590,00;0,0077
1589,00;0,0078
1588,00;0,0079
1587,00;0,0080
1586,00;0,0081
1585,00;0,0083
1584,00;0,0086
1583,00;0,0088
1582,00;0,0091
1581,00;0,0094
1580,00;0,0096
1579,00;0,0099
1578,00;0,0102
1577,00;0,0107
1576,00;0,0112
1575,00;0,0117
1574,00;0,0121
1573,00;0,0125
1572,00;0,0129
1571,00;0,0135
1570,00;0,0143
1569,00;0,0153
1568,00;0,0161
1567,00;0,0168
1566,00;0,0177
1565,00;0,0188
1564,00;0,0198
1563,00;0,0207
1562,00;0,0214
1561,00;0,0222
1560,00;0,0234
1559,00;0,0249
1558,00;0,0260
1557,00;0,0264
1556,00;0,0267
1555,00;0,0269
1554,00;0,0273
1553,00;0,0277
1552,00;0,0281
1551,00;0,0285
1550,00;0,0290
1549,00;0,0294
1548,00;0,0299
1547,00;0,0303
1546,00;0,0306
1545,00;0,0310
1544,00;0,0313
1543,00;0,0314
1542,00;0,0314
1541,00;0,0310
1540,00;0,0303
1539,00;0,0295
1538,00;0,0286
1537,00;0,0278
1536,00;0,0270
1535,00;0,0259
1534,00;0,0243
1533,00;0,0225
1532,00;0,0211
1531,00;0,0200
1530,00;0,0190
1529,00;0,0180
1528,00;0,0170
1527,00;0,0159
1526,00;0,0150
1525,00;0,0142
1524,00;0,0136
1523,00;0,0130
1522,00;0,0122
1521,00;0,0114
1520,00;0,0110
1519,00;0,0107
1518,00;0,0103
1517,00;0,0099
1516,00;0,0095
1515,00;0,0092
1514,00;0,0090
1513,00;0,0087
1512,00;0,0084
1511,00;0,0082
1510,00;0,0080
1509,00;0,0078
1508,00;0,0075
1507,00;0,0073
1506,00;0,0071
1505,00;0,0070
1504,00;0,0070
1503,00;0,0069
1502,00;0,0067
1501,00;0,0064
1500,00;0,0061
1499,00;0,0059
1498,00;0,0059
1497,00;0,0060
1496,00;0,0061
1495,00;0,0061
1494,00;0,0061
1493,00;0,0061
1492,00;0,0061
1491,00;0,0061
1490,00;0,0061
1489,00;0,0061
1488,00;0,0063
1487,00;0,0065
1486,00;0,0067
1485,00;0,0070
1484,00;0,0074
1483,00;0,0078
1482,00;0,0084
1481,00;0,0091
1480,00;0,0099
1479,00;0,0105
1478,00;0,0110
1477,00;0,0115
1476,00;0,0119
1475,00;0,0123
1474,00;0,0129
1473,00;0,0141
1472,00;0,0157
1471,00;0,0171
1470,00;0,0182
1469,00;0,0191
1468,00;0,0196
1467,00;0,0198
1466,00;0,0194
1465,00;0,0185
1464,00;0,0173
1463,00;0,0163
1462,00;0,0155
1461,00;0,0148
1460,00;0,0143
1459,00;0,0138
1458,00;0,0133
1457,00;0,0129
1456,00;0,0127
1455,00;0,0125
1454,00;0,0123
1453,00;0,0120
1452,00;0,0118
1451,00;0,0117
1450,00;0,0116
1449,00;0,0117
1448,00;0,0118
1447,00;0,0118
1446,00;0,0118
1445,00;0,0118
1444,00;0,0118
1443,00;0,0118
1442,00;0,0118
1441,00;0,0119
1440,00;0,0119
1439,00;0,0119
1438,00;0,0119
1437,00;0,0118
1436,00;0,0117
1435,00;0,0117
1434,00;0,0116
1433,00;0,0115
1432,00;0,0113
1431,00;0,0110
1430,00;0,0107
1429,00;0,0104
1428,00;0,0102
1427,00;0,0100
1426,00;0,0099
1425,00;0,0099
1424,00;0,0101
1423,00;0,0102
1422,00;0,0104
1421,00;0,0105
1420,00;0,0106
1419,00;0,0106
1418,00;0,0106
1417,00;0,0104
1416,00;0,0101
1415,00;0,0098
1414,00;0,0094
1413,00;0,0090
1412,00;0,0087
1411,00;0,0084
1410,00;0,0082
1409,00;0,0079
1408,00;0,0078
1407,00;0,0076
1406,00;0,0075
1405,00;0,0073
1404,00;0,0072
1403,00;0,0072
1402,00;0,0071
1401,00;0,0071
1400,00;0,0070
1399,00;0,0069
1398,00;0,0069
1397,00;0,0069
1396,00;0,0070
1395,00;0,0071
1394,00;0,0072
1393,00;0,0073
1392,00;0,0074
1391,00;0,0075
1390,00;0,0076
1389,00;0,0077
1388,00;0,0078
1387,00;0,0080
1386,00;0,0081
1385,00;0,0083
1384,00;0,0085
1383,00;0,0087
1382,00;0,0089
1381,00;0,0091
1380,00;0,0093
1379,00;0,0095
1378,00;0,0097
1377,00;0,0099
1376,00;0,0100
1375,00;0,0101
1374,00;0,0101
1373,00;0,0100
1372,00;0,0100
1371,00;0,0099
1370,00;0,0098
1369,00;0,0097
1368,00;0,0096
1367,00;0,0095
1366,00;0,0095
1365,00;0,0094
1364,00;0,0094
1363,00;0,0095
1362,00;0,0096
1361,00;0,0098
1360,00;0,0099
1359,00;0,0099
1358,00;0,0099
1357,00;0,0099
1356,00;0,0098
1355,00;0,0098
1354,00;0,0097
1353,00;0,0097
1352,00;0,0097
1351,00;0,0096
1350,00;0,0095
1349,00;0,0094
1348,00;0,0094
1347,00;0,0094
1346,00;0,0094
1345,00;0,0094
1344,00;0,0095
1343,00;0,0097
1342,00;0,0099
1341,00;0,0101
1340,00;0,0103
1339,00;0,0105
1338,00;0,0107
1337,00;0,0109
1336,00;0,0109
1335,00;0,0109
1334,00;0,0109
1333,00;0,0107
1332,00;0,0106
1331,00;0,0105
1330,00;0,0105
1329,00;0,0105
1328,00;0,0104
1327,00;0,0104
1326,00;0,0104
1325,00;0,0103
1324,00;0,0102
1323,00;0,0101
1322,00;0,0100
1321,00;0,0099
1320,00;0,0098
1319,00;0,0097
1318,00;0,0096
1317,00;0,0096
1316,00;0,0096
1315,00;0,0097
1314,00;0,0098
1313,00;0,0099
1312,00;0,0101
1311,00;0,0103
1310,00;0,0104
1309,00;0,0105
1308,00;0,0105
1307,00;0,0105
1306,00;0,0105
1305,00;0,0105
1304,00;0,0105
1303,00;0,0104
1302,00;0,0103
1301,00;0,0103
1300,00;0,0103
1299,00;0,0104
1298,00;0,0104
1297,00;0,0104
1296,00;0,0103
1295,00;0,0103
1294,00;0,0103
1293,00;0,0104
1292,00;0,0105
1291,00;0,0107
1290,00;0,0108
1289,00;0,0109
1288,00;0,0109
1287,00;0,0109
1286,00;0,0109
1285,00;0,0109
1284,00;0,0110
1283,00;0,0111
1282,00;0,0113
1281,00;0,0114
1280,00;0,0114
1279,00;0,0114
1278,00;0,0113
1277,00;0,0112
1276,00;0,0110
1275,00;0,0108
1274,00;0,0105
1273,00;0,0104
1272,00;0,0102
1271,00;0,0101
1270,00;0,0100
1269,00;0,0099
1268,00;0,0099
1267,00;0,0099
1266,00;0,0100
1265,00;0,0102
1264,00;0,0103
1263,00;0,0104
1262,00;0,0105
1261,00;0,0105
1260,00;0,0104
1259,00;0,0103
1258,00;0,0101
1257,00;0,0100
1256,00;0,0099
1255,00;0,0098
1254,00;0,0098
1253,00;0,0098
1252,00;0,0098
1251,00;0,0099
1250,00;0,0099
1249,00;0,0100
1248,00;0,0101
1247,00;0,0103
1246,00;0,0105
1245,00;0,0106
1244,00;0,0107
1243,00;0,0107
1242,00;0,0107
1241,00;0,0106
1240,00;0,0104
1239,00;0,0102
1238,00;0,0101
1237,00;0,0099
1236,00;0,0098
1235,00;0,0097
1234,00;0,0097
1233,00;0,0097
1232,00;0,0097
1231,00;0,0097
1230,00;0,0098
1229,00;0,0100
1228,00;0,0103
1227,00;0,0106
1226,00;0,0109
1225,00;0,0111
1224,00;0,0111
1223,00;0,0110
1222,00;0,0108
1221,00;0,0105
1220,00;0,0101
1219,00;0,0098
1218,00;0,0095
1217,00;0,0093
1216,00;0,0093
1215,00;0,0093
1214,00;0,0092
1213,00;0,0091
1212,00;0,0089
1211,00;0,0086
1210,00;0,0083
1209,00;0,0081
1208,00;0,0080
1207,00;0,0079
1206,00;0,0079
1205,00;0,0079
1204,00;0,0080
1203,00;0,0080
1202,00;0,0081
1201,00;0,0081
1200,00;0,0081
1199,00;0,0081
1198,00;0,0081
1197,00;0,0082
1196,00;0,0083
1195,00;0,0085
1194,00;0,0087
1193,00;0,0089
1192,00;0,0091
1191,00;0,0092
1190,00;0,0091
1189,00;0,0090
1188,00;0,0087
1187,00;0,0085
1186,00;0,0084
1185,00;0,0083
1184,00;0,0082
1183,00;0,0082
1182,00;0,0084
1181,00;0,0085
1180,00;0,0087
1179,00;0,0089
1178,00;0,0091
1177,00;0,0093
1176,00;0,0094
1175,00;0,0095
1174,00;0,0096
1173,00;0,0098
1172,00;0,0099
1171,00;0,0102
1170,00;0,0106
1169,00;0,0111
1168,00;0,0116
1167,00;0,0123
1166,00;0,0129
1165,00;0,0135
1164,00;0,0140
1163,00;0,0143
1162,00;0,0145
1161,00;0,0145
1160,00;0,0143
1159,00;0,0140
1158,00;0,0136
1157,00;0,0131
1156,00;0,0126
1155,00;0,0120
1154,00;0,0114
1153,00;0,0109
1152,00;0,0105
1151,00;0,0101
1150,00;0,0098
1149,00;0,0095
1148,00;0,0093
1147,00;0,0092
1146,00;0,0091
1145,00;0,0090
1144,00;0,0089
1143,00;0,0089
1142,00;0,0088
1141,00;0,0087
1140,00;0,0086
1139,00;0,0084
1138,00;0,0082
1137,00;0,0080
1136,00;0,0079
1135,00;0,0078
1134,00;0,0079
1133,00;0,0080
1132,00;0,0082
1131,00;0,0085
1130,00;0,0088
1129,00;0,0092
1128,00;0,0095
1127,00;0,0097
1126,00;0,0098
1125,00;0,0098
1124,00;0,0098
1123,00;0,0096
1122,00;0,0095
1121,00;0,0094
1120,00;0,0093
1119,00;0,0092
1118,00;0,0091
1117,00;0,0090
1116,00;0,0090
1115,00;0,0089
1114,00;0,0089
1113,00;0,0088
1112,00;0,0088
1111,00;0,0088
1110,00;0,0088
1109,00;0,0088
1108,00;0,0088
1107,00;0,0089
1106,00;0,0091
1105,00;0,0093
1104,00;0,0095
1103,00;0,0097
1102,00;0,0099
1101,00;0,0100
1100,00;0,0102
1099,00;0,0103
1098,00;0,0105
1097,00;0,0107
1096,00;0,0108
1095,00;0,0109
1094,00;0,0107
1093,00;0,0105
1092,00;0,0102
1091,00;0,0100
1090,00;0,0097
1089,00;0,0095
1088,00;0,0094
1087,00;0,0094
1086,00;0,0093
1085,00;0,0094
1084,00;0,0094
1083,00;0,0095
1082,00;0,0095
1081,00;0,0095
1080,00;0,0095
1079,00;0,0095
1078,00;0,0094
1077,00;0,0092
1076,00;0,0091
1075,00;0,0090
1074,00;0,0089
1073,00;0,0088
1072,00;0,0088
1071,00;0,0087
1070,00;0,0086
1069,00;0,0086
1068,00;0,0086
1067,00;0,0085
1066,00;0,0085
1065,00;0,0085
1064,00;0,0085
1063,00;0,0085
1062,00;0,0084
1061,00;0,0084
1060,00;0,0084
1059,00;0,0083
1058,00;0,0083
1057,00;0,0083
1056,00;0,0083
1055,00;0,0083
1054,00;0,0083
1053,00;0,0082
1052,00;0,0082
1051,00;0,0081
1050,00;0,0081
1049,00;0,0080
1048,00;0,0080
1047,00;0,0079
1046,00;0,0079
1045,00;0,0079
1044,00;0,0078
1043,00;0,0078
1042,00;0,0078
1041,00;0,0078
1040,00;0,0078
1039,00;0,0078
1038,00;0,0079
1037,00;0,0079
1036,00;0,0079
1035,00;0,0079
1034,00;0,0078
1033,00;0,0078
1032,00;0,0077
1031,00;0,0077
1030,00;0,0076
1029,00;0,0076
1028,00;0,0076
1027,00;0,0076
1026,00;0,0076
1025,00;0,0077
1024,00;0,0077
1023,00;0,0076
1022,00;0,0076
1021,00;0,0075
1020,00;0,0074
1019,00;0,0073
1018,00;0,0072
1017,00;0,0071
1016,00;0,0070
1015,00;0,0069
1014,00;0,0068
1013,00;0,0067
1012,00;0,0066
1011,00;0,0065
1010,00;0,0064
1009,00;0,0064
1008,00;0,0063
1007,00;0,0062
1006,00;0,0061
1005,00;0,0061
1004,00;0,0061
1003,00;0,0062
1002,00;0,0062
1001,00;0,0062
1000,00;0,0061
999,00;0,0060
998,00;0,0059
997,00;0,0058
996,00;0,0057
995,00;0,0056
994,00;0,0055
993,00;0,0054
992,00;0,0053
991,00;0,0052
990,00;0,0052
989,00;0,0051
988,00;0,0050
987,00;0,0050
986,00;0,0050
985,00;0,0051
984,00;0,0051
983,00;0,0051
982,00;0,0050
981,00;0,0050
980,00;0,0050
979,00;0,0050
978,00;0,0050
977,00;0,0050
976,00;0,0050
975,00;0,0050
974,00;0,0050
973,00;0,0050
972,00;0,0050
971,00;0,0049
970,00;0,0049
969,00;0,0049
968,00;0,0049
967,00;0,0049
966,00;0,0048
965,00;0,0048
964,00;0,0047
963,00;0,0047
962,00;0,0046
961,00;0,0045
960,00;0,0044
959,00;0,0044
958,00;0,0043
957,00;0,0043
956,00;0,0043
955,00;0,0043
954,00;0,0043
953,00;0,0044
952,00;0,0044
951,00;0,0044
950,00;0,0044
949,00;0,0044
948,00;0,0045
947,00;0,0045
946,00;0,0045
945,00;0,0046
944,00;0,0047
943,00;0,0049
942,00;0,0050
941,00;0,0052
940,00;0,0054
939,00;0,0056
938,00;0,0057
937,00;0,0057
936,00;0,0057
935,00;0,0055
934,00;0,0054
933,00;0,0052
932,00;0,0051
931,00;0,0050
930,00;0,0048
929,00;0,0046
928,00;0,0045
927,00;0,0044
926,00;0,0044
925,00;0,0044
924,00;0,0044
923,00;0,0044
922,00;0,0043
921,00;0,0043
920,00;0,0043
919,00;0,0043
918,00;0,0044
917,00;0,0044
916,00;0,0044
915,00;0,0044
914,00;0,0044
913,00;0,0044
912,00;0,0045
911,00;0,0045
910,00;0,0045
909,00;0,0045
908,00;0,0045
907,00;0,0046
906,00;0,0047
905,00;0,0047
904,00;0,0047
903,00;0,0044
902,00;0,0039
901,00;0,0035
900,00;0,0034
899,00;0,0037
898,00;0,0041
897,00;0,0044
896,00;0,0045
895,00;0,0044
894,00;0,0044
893,00;0,0043
892,00;0,0043
891,00;0,0042
890,00;0,0041
889,00;0,0040
888,00;0,0039
887,00;0,0039
886,00;0,0039
885,00;0,0040
884,00;0,0040
883,00;0,0041
882,00;0,0042
881,00;0,0042
880,00;0,0041
879,00;0,0041
878,00;0,0041
877,00;0,0041
876,00;0,0042
875,00;0,0042
874,00;0,0043
873,00;0,0042
872,00;0,0042
871,00;0,0043
870,00;0,0043
869,00;0,0044
868,00;0,0044
867,00;0,0045
866,00;0,0045
865,00;0,0045
864,00;0,0044
863,00;0,0043
862,00;0,0043
861,00;0,0042
860,00;0,0042
859,00;0,0042
858,00;0,0041
857,00;0,0041
856,00;0,0041
855,00;0,0041
854,00;0,0041
853,00;0,0041
852,00;0,0041
851,00;0,0041
850,00;0,0040
849,00;0,0040
848,00;0,0040
847,00;0,0040
846,00;0,0041
845,00;0,0043
844,00;0,0043
843,00;0,0043
842,00;0,0042
841,00;0,0041
840,00;0,0041
839,00;0,0041
838,00;0,0042
837,00;0,0044
836,00;0,0044
835,00;0,0044
834,00;0,0042
833,00;0,0041
832,00;0,0040
831,00;0,0042
830,00;0,0043
829,00;0,0044
828,00;0,0043
827,00;0,0043
826,00;0,0043
825,00;0,0043
824,00;0,0044
823,00;0,0045
822,00;0,0047
821,00;0,0048
820,00;0,0049
819,00;0,0049
818,00;0,0049
817,00;0,0049
816,00;0,0050
815,00;0,0050
814,00;0,0051
813,00;0,0052
812,00;0,0053
811,00;0,0053
810,00;0,0054
809,00;0,0054
808,00;0,0054
807,00;0,0054
806,00;0,0054
805,00;0,0055
804,00;0,0056
803,00;0,0057
802,00;0,0058
801,00;0,0058
800,00;0,0057
799,00;0,0057
798,00;0,0058
797,00;0,0059
796,00;0,0060
795,00;0,0060
794,00;0,0061
793,00;0,0061
792,00;0,0061
791,00;0,0060
790,00;0,0060
789,00;0,0059
788,00;0,0059
787,00;0,0060
786,00;0,0060
785,00;0,0059
784,00;0,0059
783,00;0,0059
782,00;0,0059
781,00;0,0060
780,00;0,0061
779,00;0,0061
778,00;0,0061
777,00;0,0060
776,00;0,0061
775,00;0,0061
774,00;0,0061
773,00;0,0062
772,00;0,0064
771,00;0,0065
770,00;0,0066
769,00;0,0068
768,00;0,0070
767,00;0,0072
766,00;0,0074
765,00;0,0076
764,00;0,0078
763,00;0,0079
762,00;0,0082
761,00;0,0085
760,00;0,0088
759,00;0,0091
758,00;0,0094
757,00;0,0096
756,00;0,0098
755,00;0,0100
754,00;0,0101
753,00;0,0101
752,00;0,0100
751,00;0,0099
750,00;0,0098
749,00;0,0098
748,00;0,0098
747,00;0,0099
746,00;0,0098
745,00;0,0097
744,00;0,0096
743,00;0,0097
742,00;0,0099
741,00;0,0101
740,00;0,0105
739,00;0,0109
738,00;0,0112
737,00;0,0115
736,00;0,0118
735,00;0,0121
734,00;0,0123
733,00;0,0127
732,00;0,0132
731,00;0,0137
730,00;0,0142
729,00;0,0146
728,00;0,0151
727,00;0,0157
726,00;0,0165
725,00;0,0176
724,00;0,0187
723,00;0,0197
722,00;0,0206
721,00;0,0210
720,00;0,0209
719,00;0,0202
718,00;0,0192
717,00;0,0181
716,00;0,0172
715,00;0,0164
714,00;0,0158
713,00;0,0152
712,00;0,0147
711,00;0,0143
710,00;0,0139
709,00;0,0136
708,00;0,0134
707,00;0,0132
706,00;0,0130
705,00;0,0130
704,00;0,0130
703,00;0,0132
702,00;0,0134
701,00;0,0136
700,00;0,0140
